#FORMAT	     : EMSA/MAS Spectral Data File
#VERSION     : 1.0
#TITLE       : Fe2O3(0420-0920eV)
#DATE        : 
#TIME        : 
#OWNER       : 
#NPOINTS     : 1024
#NCOLUMNS    : 1
#XUNITS      : eV
#YUNITS      : 
#DATATYPE    : XY
#XPERCHAN    : 5.000000e-001
#OFFSET      : 4.165000e+002
#SPECTRUM    : Spectral Data Starts Here
4.165000e+002, -1.000000e+000
4.170000e+002, -1.000000e+000
4.175000e+002, -1.000000e+000
4.180000e+002, -1.000000e+000
4.185000e+002, -1.000000e+000
4.190000e+002, -1.000000e+000
4.195000e+002, -1.000000e+000
4.200000e+002, -1.000000e+000
4.205000e+002, -1.000000e+000
4.210000e+002, -1.000000e+000
4.215000e+002, -1.000000e+000
4.220000e+002, 5.487290e+000
4.225000e+002, 5.404120e+000
4.230000e+002, 5.406960e+000
4.235000e+002, 5.337710e+000
4.240000e+002, 5.365790e+000
4.245000e+002, 5.375510e+000
4.250000e+002, 5.299110e+000
4.255000e+002, 5.319870e+000
4.260000e+002, 5.318260e+000
4.265000e+002, 5.317580e+000
4.270000e+002, 5.333890e+000
4.275000e+002, 5.319130e+000
4.280000e+002, 5.329890e+000
4.285000e+002, 5.324500e+000
4.290000e+002, 5.315660e+000
4.295000e+002, 5.313010e+000
4.300000e+002, 5.292880e+000
4.305000e+002, 5.258310e+000
4.310000e+002, 5.219860e+000
4.315000e+002, 5.209410e+000
4.320000e+002, 5.107850e+000
4.325000e+002, 4.929290e+000
4.330000e+002, 4.925710e+000
4.335000e+002, 4.870920e+000
4.340000e+002, 4.885890e+000
4.345000e+002, 4.884520e+000
4.350000e+002, 4.896230e+000
4.355000e+002, 4.913970e+000
4.360000e+002, 4.910610e+000
4.365000e+002, 4.926040e+000
4.370000e+002, 4.937960e+000
4.375000e+002, 4.949510e+000
4.380000e+002, 4.953730e+000
4.385000e+002, 4.988340e+000
4.390000e+002, 5.027640e+000
4.395000e+002, 5.024170e+000
4.400000e+002, 5.027700e+000
4.405000e+002, 5.026740e+000
4.410000e+002, 5.025950e+000
4.415000e+002, 5.024390e+000
4.420000e+002, 5.022600e+000
4.425000e+002, 5.020710e+000
4.430000e+002, 5.018970e+000
4.435000e+002, 5.018440e+000
4.440000e+002, 5.017910e+000
4.445000e+002, 5.015190e+000
4.450000e+002, 5.010860e+000
4.455000e+002, 5.012080e+000
4.460000e+002, 5.010100e+000
4.465000e+002, 5.008680e+000
4.470000e+002, 5.009320e+000
4.475000e+002, 5.006310e+000
4.480000e+002, 5.004590e+000
4.485000e+002, 5.003020e+000
4.490000e+002, 5.001060e+000
4.495000e+002, 5.003750e+000
4.500000e+002, 5.001420e+000
4.505000e+002, 4.996540e+000
4.510000e+002, 4.992910e+000
4.515000e+002, 4.996300e+000
4.520000e+002, 9.861700e+004
4.525000e+002, 9.815500e+004
4.530000e+002, 9.772000e+004
4.535000e+002, 9.751100e+004
4.540000e+002, 9.723400e+004
4.545000e+002, 9.692300e+004
4.550000e+002, 9.627900e+004
4.555000e+002, 9.581910e+004
4.560000e+002, 9.617610e+004
4.565000e+002, 9.502900e+004
4.570000e+002, 9.479200e+004
4.575000e+002, 9.498100e+004
4.580000e+002, 9.438500e+004
4.585000e+002, 9.402500e+004
4.590000e+002, 9.392200e+004
4.595000e+002, 9.377300e+004
4.600000e+002, 9.348700e+004
4.605000e+002, 9.252290e+004
4.610000e+002, 9.225400e+004
4.615000e+002, 9.250800e+004
4.620000e+002, 9.234910e+004
4.625000e+002, 9.118310e+004
4.630000e+002, 9.198110e+004
4.635000e+002, 9.048900e+004
4.640000e+002, 9.019600e+004
4.645000e+002, 8.989590e+004
4.650000e+002, 8.998100e+004
4.655000e+002, 9.003110e+004
4.660000e+002, 8.905800e+004
4.665000e+002, 8.884300e+004
4.670000e+002, 8.912300e+004
4.675000e+002, 8.874600e+004
4.680000e+002, 8.826810e+004
4.685000e+002, 8.770500e+004
4.690000e+002, 8.786210e+004
4.695000e+002, 8.785500e+004
4.700000e+002, 8.718010e+004
4.705000e+002, 8.645200e+004
4.710000e+002, 8.667600e+004
4.715000e+002, 8.653600e+004
4.720000e+002, 8.579200e+004
4.725000e+002, 8.593810e+004
4.730000e+002, 8.525800e+004
4.735000e+002, 8.459710e+004
4.740000e+002, 8.441810e+004
4.745000e+002, 8.433500e+004
4.750000e+002, 8.466200e+004
4.755000e+002, 8.384790e+004
4.760000e+002, 8.423900e+004
4.765000e+002, 8.394200e+004
4.770000e+002, 8.349400e+004
4.775000e+002, 8.363210e+004
4.780000e+002, 8.331500e+004
4.785000e+002, 8.274500e+004
4.790000e+002, 8.266400e+004
4.795000e+002, 8.249410e+004
4.800000e+002, 8.207200e+004
4.805000e+002, 8.145100e+004
4.810000e+002, 8.131110e+004
4.815000e+002, 8.129800e+004
4.820000e+002, 8.101700e+004
4.825000e+002, 8.075000e+004
4.830000e+002, 8.016000e+004
4.835000e+002, 8.003210e+004
4.840000e+002, 7.991800e+004
4.845000e+002, 7.931810e+004
4.850000e+002, 7.934510e+004
4.855000e+002, 7.957200e+004
4.860000e+002, 7.887100e+004
4.865000e+002, 7.870000e+004
4.870000e+002, 7.863610e+004
4.875000e+002, 7.797900e+004
4.880000e+002, 7.757800e+004
4.885000e+002, 7.777510e+004
4.890000e+002, 7.788810e+004
4.895000e+002, 7.734210e+004
4.900000e+002, 7.717300e+004
4.905000e+002, 7.695510e+004
4.910000e+002, 7.661200e+004
4.915000e+002, 7.652900e+004
4.920000e+002, 7.568700e+004
4.925000e+002, 7.607000e+004
4.930000e+002, 7.559210e+004
4.935000e+002, 7.572210e+004
4.940000e+002, 7.519000e+004
4.945000e+002, 7.513210e+004
4.950000e+002, 7.518800e+004
4.955000e+002, 7.444810e+004
4.960000e+002, 7.465000e+004
4.965000e+002, 7.445200e+004
4.970000e+002, 7.373310e+004
4.975000e+002, 7.344800e+004
4.980000e+002, 7.393100e+004
4.985000e+002, 7.299300e+004
4.990000e+002, 7.344200e+004
4.995000e+002, 7.269200e+004
5.000000e+002, 7.261200e+004
5.005000e+002, 7.245700e+004
5.010000e+002, 7.198710e+004
5.015000e+002, 7.248200e+004
5.020000e+002, 7.177400e+004
5.025000e+002, 7.149600e+004
5.030000e+002, 7.160900e+004
5.035000e+002, 7.087900e+004
5.040000e+002, 7.085200e+004
5.045000e+002, 7.089500e+004
5.050000e+002, 7.074600e+004
5.055000e+002, 7.047800e+004
5.060000e+002, 7.045500e+004
5.065000e+002, 7.023400e+004
5.070000e+002, 7.028300e+004
5.075000e+002, 6.957210e+004
5.080000e+002, 6.948400e+004
5.085000e+002, 6.925500e+004
5.090000e+002, 6.934000e+004
5.095000e+002, 6.889900e+004
5.100000e+002, 6.882400e+004
5.105000e+002, 6.891800e+004
5.110000e+002, 6.824900e+004
5.115000e+002, 6.804600e+004
5.120000e+002, 6.804100e+004
5.125000e+002, 6.782100e+004
5.130000e+002, 6.808400e+004
5.135000e+002, 6.746400e+004
5.140000e+002, 6.779700e+004
5.145000e+002, 6.724900e+004
5.150000e+002, 6.770100e+004
5.155000e+002, 6.730900e+004
5.160000e+002, 6.612500e+004
5.165000e+002, 6.623000e+004
5.170000e+002, 6.620010e+004
5.175000e+002, 6.625300e+004
5.180000e+002, 6.646500e+004
5.185000e+002, 6.620100e+004
5.190000e+002, 6.550810e+004
5.195000e+002, 6.567000e+004
5.200000e+002, 6.486200e+004
5.205000e+002, 6.556800e+004
5.210000e+002, 6.533010e+004
5.215000e+002, 6.498600e+004
5.220000e+002, 6.489300e+004
5.225000e+002, 6.459300e+004
5.230000e+002, 6.432000e+004
5.235000e+002, 6.395300e+004
5.240000e+002, 6.377500e+004
5.245000e+002, 6.398010e+004
5.250000e+002, 6.381100e+004
5.255000e+002, 6.413110e+004
5.260000e+002, 6.344600e+004
5.265000e+002, 6.358600e+004
5.270000e+002, 6.357200e+004
5.275000e+002, 6.348500e+004
5.280000e+002, 6.390700e+004
5.285000e+002, 6.427900e+004
5.290000e+002, 6.565500e+004
5.295000e+002, 6.854100e+004
5.300000e+002, 7.284500e+004
5.305000e+002, 8.132500e+004
5.310000e+002, 8.951100e+004
5.315000e+002, 9.539900e+004
5.320000e+002, 9.800300e+004
5.325000e+002, 9.699000e+004
5.330000e+002, 9.270600e+004
5.335000e+002, 8.691300e+004
5.340000e+002, 8.186200e+004
5.345000e+002, 7.843600e+004
5.350000e+002, 7.768200e+004
5.355000e+002, 7.877100e+004
5.360000e+002, 8.251400e+004
5.365000e+002, 8.679900e+004
5.370000e+002, 9.222800e+004
5.375000e+002, 9.649910e+004
5.380000e+002, 1.014800e+005
5.385000e+002, 1.058170e+005
5.390000e+002, 1.089830e+005
5.395000e+002, 1.120250e+005
5.400000e+002, 1.136250e+005
5.405000e+002, 1.151530e+005
5.410000e+002, 1.186140e+005
5.415000e+002, 1.192570e+005
5.420000e+002, 1.198460e+005
5.425000e+002, 1.184960e+005
5.430000e+002, 1.167830e+005
5.435000e+002, 1.119790e+005
5.440000e+002, 1.073540e+005
5.445000e+002, 1.025430e+005
5.450000e+002, 9.836900e+004
5.455000e+002, 9.485210e+004
5.460000e+002, 9.202700e+004
5.465000e+002, 9.054500e+004
5.470000e+002, 8.894510e+004
5.475000e+002, 8.951200e+004
5.480000e+002, 9.016400e+004
5.485000e+002, 8.960300e+004
5.490000e+002, 8.978510e+004
5.495000e+002, 8.890400e+004
5.500000e+002, 8.833210e+004
5.505000e+002, 8.795200e+004
5.510000e+002, 8.682010e+004
5.515000e+002, 8.552100e+004
5.520000e+002, 8.524300e+004
5.525000e+002, 8.454800e+004
5.530000e+002, 8.534410e+004
5.535000e+002, 8.534200e+004
5.540000e+002, 8.562810e+004
5.545000e+002, 8.549600e+004
5.550000e+002, 8.585200e+004
5.555000e+002, 8.684500e+004
5.560000e+002, 8.698000e+004
5.565000e+002, 8.717200e+004
5.570000e+002, 8.753300e+004
5.575000e+002, 8.834000e+004
5.580000e+002, 8.806300e+004
5.585000e+002, 8.920810e+004
5.590000e+002, 8.962300e+004
5.595000e+002, 8.985900e+004
5.600000e+002, 9.037500e+004
5.605000e+002, 9.125710e+004
5.610000e+002, 9.241100e+004
5.615000e+002, 9.202800e+004
5.620000e+002, 9.269800e+004
5.625000e+002, 9.292500e+004
5.630000e+002, 9.245910e+004
5.635000e+002, 9.211100e+004
5.640000e+002, 9.180700e+004
5.645000e+002, 9.100400e+004
5.650000e+002, 9.041100e+004
5.655000e+002, 9.042600e+004
5.660000e+002, 8.975500e+004
5.665000e+002, 8.877000e+004
5.670000e+002, 8.767310e+004
5.675000e+002, 8.800800e+004
5.680000e+002, 8.731600e+004
5.685000e+002, 8.674710e+004
5.690000e+002, 8.676700e+004
5.695000e+002, 8.561500e+004
5.700000e+002, 8.548610e+004
5.705000e+002, 8.509900e+004
5.710000e+002, 8.464100e+004
5.715000e+002, 8.420800e+004
5.720000e+002, 8.420900e+004
5.725000e+002, 8.427190e+004
5.730000e+002, 8.393000e+004
5.735000e+002, 8.307400e+004
5.740000e+002, 8.268110e+004
5.745000e+002, 8.306100e+004
5.750000e+002, 8.282900e+004
5.755000e+002, 8.270690e+004
5.760000e+002, 8.271500e+004
5.765000e+002, 8.301000e+004
5.770000e+002, 8.376710e+004
5.775000e+002, 8.320800e+004
5.780000e+002, 8.403800e+004
5.785000e+002, 8.430800e+004
5.790000e+002, 8.467000e+004
5.795000e+002, 8.458300e+004
5.800000e+002, 8.417110e+004
5.805000e+002, 8.318910e+004
5.810000e+002, 8.220010e+004
5.815000e+002, 8.215800e+004
5.820000e+002, 8.051000e+004
5.825000e+002, 8.015010e+004
5.830000e+002, 7.942400e+004
5.835000e+002, 7.959100e+004
5.840000e+002, 7.940900e+004
5.845000e+002, 7.905400e+004
5.850000e+002, 7.910900e+004
5.855000e+002, 7.924400e+004
5.860000e+002, 7.950310e+004
5.865000e+002, 7.987410e+004
5.870000e+002, 8.003700e+004
5.875000e+002, 7.994100e+004
5.880000e+002, 8.031600e+004
5.885000e+002, 8.031600e+004
5.890000e+002, 7.931410e+004
5.895000e+002, 7.965300e+004
5.900000e+002, 7.898500e+004
5.905000e+002, 7.850800e+004
5.910000e+002, 7.799100e+004
5.915000e+002, 7.679700e+004
5.920000e+002, 7.721100e+004
5.925000e+002, 7.691600e+004
5.930000e+002, 7.713200e+004
5.935000e+002, 7.664310e+004
5.940000e+002, 7.681200e+004
5.945000e+002, 7.650600e+004
5.950000e+002, 7.661500e+004
5.955000e+002, 7.614600e+004
5.960000e+002, 7.628700e+004
5.965000e+002, 7.650400e+004
5.970000e+002, 7.602400e+004
5.975000e+002, 7.621600e+004
5.980000e+002, 7.565510e+004
5.985000e+002, 7.546900e+004
5.990000e+002, 7.530100e+004
5.995000e+002, 7.601100e+004
6.000000e+002, 7.505410e+004
6.005000e+002, 7.485400e+004
6.010000e+002, 7.557800e+004
6.015000e+002, 7.491810e+004
6.020000e+002, 7.453300e+004
6.025000e+002, 7.445300e+004
6.030000e+002, 7.404300e+004
6.035000e+002, 7.416500e+004
6.040000e+002, 7.316400e+004
6.045000e+002, 7.288800e+004
6.050000e+002, 7.354500e+004
6.055000e+002, 7.279400e+004
6.060000e+002, 7.252600e+004
6.065000e+002, 7.300600e+004
6.070000e+002, 7.209600e+004
6.075000e+002, 7.196200e+004
6.080000e+002, 7.181000e+004
6.085000e+002, 7.150610e+004
6.090000e+002, 7.164200e+004
6.095000e+002, 7.130200e+004
6.100000e+002, 7.095810e+004
6.105000e+002, 7.131300e+004
6.110000e+002, 7.112900e+004
6.115000e+002, 7.096900e+004
6.120000e+002, 7.030410e+004
6.125000e+002, 7.091100e+004
6.130000e+002, 7.059000e+004
6.135000e+002, 7.034600e+004
6.140000e+002, 7.027300e+004
6.145000e+002, 6.973300e+004
6.150000e+002, 6.981900e+004
6.155000e+002, 6.989200e+004
6.160000e+002, 6.935100e+004
6.165000e+002, 6.942900e+004
6.170000e+002, 6.953900e+004
6.175000e+002, 6.940700e+004
6.180000e+002, 6.944800e+004
6.185000e+002, 6.916000e+004
6.190000e+002, 6.872000e+004
6.195000e+002, 6.850500e+004
6.200000e+002, 6.870310e+004
6.205000e+002, 6.876210e+004
6.210000e+002, 6.830500e+004
6.215000e+002, 6.791900e+004
6.220000e+002, 6.826600e+004
6.225000e+002, 6.825900e+004
6.230000e+002, 6.802300e+004
6.235000e+002, 6.808200e+004
6.240000e+002, 6.769400e+004
6.245000e+002, 6.776000e+004
6.250000e+002, 6.733000e+004
6.255000e+002, 6.724300e+004
6.260000e+002, 6.683200e+004
6.265000e+002, 6.683200e+004
6.270000e+002, 6.633700e+004
6.275000e+002, 6.602500e+004
6.280000e+002, 6.716200e+004
6.285000e+002, 6.621000e+004
6.290000e+002, 6.603510e+004
6.295000e+002, 6.587400e+004
6.300000e+002, 6.641200e+004
6.305000e+002, 6.568900e+004
6.310000e+002, 6.574710e+004
6.315000e+002, 6.508000e+004
6.320000e+002, 6.573700e+004
6.325000e+002, 6.525400e+004
6.330000e+002, 6.536700e+004
6.335000e+002, 6.470200e+004
6.340000e+002, 6.421900e+004
6.345000e+002, 6.487200e+004
6.350000e+002, 6.428900e+004
6.355000e+002, 6.418600e+004
6.360000e+002, 6.412300e+004
6.365000e+002, 6.380100e+004
6.370000e+002, 6.340100e+004
6.375000e+002, 6.357710e+004
6.380000e+002, 6.373300e+004
6.385000e+002, 6.369810e+004
6.390000e+002, 6.332200e+004
6.395000e+002, 6.303500e+004
6.400000e+002, 6.316400e+004
6.405000e+002, 6.251100e+004
6.410000e+002, 6.283400e+004
6.415000e+002, 6.319300e+004
6.420000e+002, 6.286200e+004
6.425000e+002, 6.288500e+004
6.430000e+002, 6.240100e+004
6.435000e+002, 6.219500e+004
6.440000e+002, 6.258300e+004
6.445000e+002, 6.242900e+004
6.450000e+002, 6.233710e+004
6.455000e+002, 6.198800e+004
6.460000e+002, 6.179500e+004
6.465000e+002, 6.202900e+004
6.470000e+002, 6.124910e+004
6.475000e+002, 6.138710e+004
6.480000e+002, 6.090400e+004
6.485000e+002, 6.087300e+004
6.490000e+002, 6.051300e+004
6.495000e+002, 6.093000e+004
6.500000e+002, 6.020100e+004
6.505000e+002, 6.056400e+004
6.510000e+002, 5.997400e+004
6.515000e+002, 5.999400e+004
6.520000e+002, 5.964400e+004
6.525000e+002, 6.006500e+004
6.530000e+002, 5.962600e+004
6.535000e+002, 5.974810e+004
6.540000e+002, 5.950500e+004
6.545000e+002, 5.940700e+004
6.550000e+002, 5.900400e+004
6.555000e+002, 5.915900e+004
6.560000e+002, 5.910000e+004
6.565000e+002, 5.890000e+004
6.570000e+002, 5.874800e+004
6.575000e+002, 5.859700e+004
6.580000e+002, 5.851800e+004
6.585000e+002, 5.851100e+004
6.590000e+002, 5.799110e+004
6.595000e+002, 5.812300e+004
6.600000e+002, 5.798500e+004
6.605000e+002, 5.805600e+004
6.610000e+002, 5.824900e+004
6.615000e+002, 5.728600e+004
6.620000e+002, 5.760200e+004
6.625000e+002, 5.713810e+004
6.630000e+002, 5.706100e+004
6.635000e+002, 5.687600e+004
6.640000e+002, 5.679910e+004
6.645000e+002, 5.683200e+004
6.650000e+002, 5.626500e+004
6.655000e+002, 5.653000e+004
6.660000e+002, 5.620400e+004
6.665000e+002, 5.630100e+004
6.670000e+002, 5.627200e+004
6.675000e+002, 5.634900e+004
6.680000e+002, 5.602400e+004
6.685000e+002, 5.611300e+004
6.690000e+002, 5.571500e+004
6.695000e+002, 5.585500e+004
6.700000e+002, 5.550200e+004
6.705000e+002, 5.528800e+004
6.710000e+002, 5.543100e+004
6.715000e+002, 5.583500e+004
6.720000e+002, 5.518900e+004
6.725000e+002, 5.510500e+004
6.730000e+002, 5.515900e+004
6.735000e+002, 5.501000e+004
6.740000e+002, 5.478300e+004
6.745000e+002, 5.519100e+004
6.750000e+002, 5.528200e+004
6.755000e+002, 5.444200e+004
6.760000e+002, 5.447900e+004
6.765000e+002, 5.442000e+004
6.770000e+002, 5.480100e+004
6.775000e+002, 5.422600e+004
6.780000e+002, 5.430100e+004
6.785000e+002, 5.401200e+004
6.790000e+002, 5.408400e+004
6.795000e+002, 5.358900e+004
6.800000e+002, 5.414300e+004
6.805000e+002, 5.386500e+004
6.810000e+002, 5.380600e+004
6.815000e+002, 5.333400e+004
6.820000e+002, 5.318700e+004
6.825000e+002, 5.317700e+004
6.830000e+002, 5.359600e+004
6.835000e+002, 5.381600e+004
6.840000e+002, 5.314610e+004
6.845000e+002, 5.303900e+004
6.850000e+002, 5.242600e+004
6.855000e+002, 5.286900e+004
6.860000e+002, 5.284300e+004
6.865000e+002, 5.230100e+004
6.870000e+002, 5.264800e+004
6.875000e+002, 5.233800e+004
6.880000e+002, 5.233900e+004
6.885000e+002, 5.202600e+004
6.890000e+002, 5.245400e+004
6.895000e+002, 5.242600e+004
6.900000e+002, 5.210800e+004
6.905000e+002, 5.225500e+004
6.910000e+002, 5.169800e+004
6.915000e+002, 5.201600e+004
6.920000e+002, 5.193700e+004
6.925000e+002, 5.166500e+004
6.930000e+002, 5.171200e+004
6.935000e+002, 5.139700e+004
6.940000e+002, 5.129700e+004
6.945000e+002, 5.130600e+004
6.950000e+002, 5.141800e+004
6.955000e+002, 5.140600e+004
6.960000e+002, 5.115000e+004
6.965000e+002, 5.092800e+004
6.970000e+002, 5.110000e+004
6.975000e+002, 5.083900e+004
6.980000e+002, 5.071500e+004
6.985000e+002, 5.033100e+004
6.990000e+002, 5.056400e+004
6.995000e+002, 5.116000e+004
7.000000e+002, 5.102000e+004
7.005000e+002, 5.037200e+004
7.010000e+002, 5.089200e+004
7.015000e+002, 4.985100e+004
7.020000e+002, 5.051500e+004
7.025000e+002, 5.057400e+004
7.030000e+002, 5.011200e+004
7.035000e+002, 5.018300e+004
7.040000e+002, 5.046500e+004
7.045000e+002, 5.026900e+004
7.050000e+002, 5.050100e+004
7.055000e+002, 5.071700e+004
7.060000e+002, 5.112300e+004
7.065000e+002, 5.215000e+004
7.070000e+002, 5.346800e+004
7.075000e+002, 5.694300e+004
7.080000e+002, 6.308500e+004
7.085000e+002, 7.439800e+004
7.090000e+002, 8.988610e+004
7.095000e+002, 1.087690e+005
7.100000e+002, 1.288560e+005
7.105000e+002, 1.461470e+005
7.110000e+002, 1.547770e+005
7.115000e+002, 1.448600e+005
7.120000e+002, 1.265540e+005
7.125000e+002, 1.095070e+005
7.130000e+002, 9.652800e+004
7.135000e+002, 8.717410e+004
7.140000e+002, 8.158400e+004
7.145000e+002, 7.695900e+004
7.150000e+002, 7.363800e+004
7.155000e+002, 7.087400e+004
7.160000e+002, 6.843600e+004
7.165000e+002, 6.742700e+004
7.170000e+002, 6.587400e+004
7.175000e+002, 6.494600e+004
7.180000e+002, 6.394500e+004
7.185000e+002, 6.287100e+004
7.190000e+002, 6.242400e+004
7.195000e+002, 6.149410e+004
7.200000e+002, 6.182610e+004
7.205000e+002, 6.280600e+004
7.210000e+002, 6.411000e+004
7.215000e+002, 6.648100e+004
7.220000e+002, 7.052700e+004
7.225000e+002, 7.399900e+004
7.230000e+002, 7.663710e+004
7.235000e+002, 7.840300e+004
7.240000e+002, 7.895300e+004
7.245000e+002, 7.719700e+004
7.250000e+002, 7.528400e+004
7.255000e+002, 7.311100e+004
7.260000e+002, 7.009900e+004
7.265000e+002, 6.749000e+004
7.270000e+002, 6.567100e+004
7.275000e+002, 6.360000e+004
7.280000e+002, 6.281200e+004
7.285000e+002, 6.238300e+004
7.290000e+002, 6.201900e+004
7.295000e+002, 6.212210e+004
7.300000e+002, 6.163300e+004
7.305000e+002, 6.172400e+004
7.310000e+002, 6.120700e+004
7.315000e+002, 6.117800e+004
7.320000e+002, 6.088900e+004
7.325000e+002, 6.131800e+004
7.330000e+002, 6.156600e+004
7.335000e+002, 6.044800e+004
7.340000e+002, 6.100800e+004
7.345000e+002, 6.106410e+004
7.350000e+002, 6.076000e+004
7.355000e+002, 6.091200e+004
7.360000e+002, 6.078800e+004
7.365000e+002, 6.089300e+004
7.370000e+002, 6.083410e+004
7.375000e+002, 6.110300e+004
7.380000e+002, 6.145200e+004
7.385000e+002, 6.156900e+004
7.390000e+002, 6.085300e+004
7.395000e+002, 6.123900e+004
7.400000e+002, 6.117500e+004
7.405000e+002, 6.086100e+004
7.410000e+002, 6.129100e+004
7.415000e+002, 6.115000e+004
7.420000e+002, 6.143100e+004
7.425000e+002, 6.098400e+004
7.430000e+002, 6.173000e+004
7.435000e+002, 6.164500e+004
7.440000e+002, 6.227400e+004
7.445000e+002, 6.218300e+004
7.450000e+002, 6.263500e+004
7.455000e+002, 6.203200e+004
7.460000e+002, 6.223400e+004
7.465000e+002, 6.225300e+004
7.470000e+002, 6.269900e+004
7.475000e+002, 6.278300e+004
7.480000e+002, 6.229300e+004
7.485000e+002, 6.248800e+004
7.490000e+002, 6.250000e+004
7.495000e+002, 6.271100e+004
7.500000e+002, 6.278110e+004
7.505000e+002, 6.249900e+004
7.510000e+002, 6.219400e+004
7.515000e+002, 6.228300e+004
7.520000e+002, 6.232300e+004
7.525000e+002, 6.186900e+004
7.530000e+002, 6.227300e+004
7.535000e+002, 6.219700e+004
7.540000e+002, 6.173800e+004
7.545000e+002, 6.221000e+004
