#FORMAT	     : EMSA/MAS Spectral Data File
#VERSION     : 1.0
#TITLE       : NiO(0400-1410eV)
#DATE        : 
#TIME        : 
#OWNER       : 
#NPOINTS     : 1024
#NCOLUMNS    : 1
#XUNITS      : eV
#YUNITS      : 
#DATATYPE    : XY
#XPERCHAN    : 1.000000e+000
#OFFSET      : 3.950000e+002
#SPECTRUM    : Spectral Data Starts Here
3.950000e+002, 1.000000e-001
3.960000e+002, 1.000000e-001
3.970000e+002, 1.000000e-001
3.980000e+002, 1.000000e-001
3.990000e+002, 1.000000e-001
4.000000e+002, 1.000000e-001
4.010000e+002, 1.000000e-001
4.020000e+002, 1.000000e-001
4.030000e+002, 1.000000e-001
4.040000e+002, 1.000000e-001
4.050000e+002, 1.000000e-001
4.060000e+002, 1.936630e+005
4.070000e+002, 2.130430e+005
4.080000e+002, 2.095430e+005
4.090000e+002, 2.083670e+005
4.100000e+002, 2.064290e+005
4.110000e+002, 2.041330e+005
4.120000e+002, 2.020210e+005
4.130000e+002, 2.000540e+005
4.140000e+002, 1.976380e+005
4.150000e+002, 1.953100e+005
4.160000e+002, 1.927510e+005
4.170000e+002, 1.920350e+005
4.180000e+002, 1.899500e+005
4.190000e+002, 1.881410e+005
4.200000e+002, 1.863080e+005
4.210000e+002, 1.832530e+005
4.220000e+002, 1.817080e+005
4.230000e+002, 1.795460e+005
4.240000e+002, 1.785640e+005
4.250000e+002, 1.783760e+005
4.260000e+002, 1.763090e+005
4.270000e+002, 1.746060e+005
4.280000e+002, 1.731760e+005
4.290000e+002, 1.721750e+005
4.300000e+002, 1.694570e+005
4.310000e+002, 1.686820e+005
4.320000e+002, 1.669570e+005
4.330000e+002, 1.651800e+005
4.340000e+002, 1.643430e+005
4.350000e+002, 1.619010e+005
4.360000e+002, 1.609050e+005
4.370000e+002, 1.591870e+005
4.380000e+002, 1.577190e+005
4.390000e+002, 1.560480e+005
4.400000e+002, 1.543410e+005
4.410000e+002, 1.545530e+005
4.420000e+002, 1.529010e+005
4.430000e+002, 1.511540e+005
4.440000e+002, 1.493230e+005
4.450000e+002, 1.476440e+005
4.460000e+002, 1.470750e+005
4.470000e+002, 1.448640e+005
4.480000e+002, 1.435990e+005
4.490000e+002, 1.427350e+005
4.500000e+002, 1.421580e+005
4.510000e+002, 1.402990e+005
4.520000e+002, 1.393690e+005
4.530000e+002, 1.383440e+005
4.540000e+002, 1.368100e+005
4.550000e+002, 1.354720e+005
4.560000e+002, 1.345510e+005
4.570000e+002, 1.340730e+005
4.580000e+002, 1.328690e+005
4.590000e+002, 1.319730e+005
4.600000e+002, 1.299990e+005
4.610000e+002, 1.294320e+005
4.620000e+002, 1.277000e+005
4.630000e+002, 1.265360e+005
4.640000e+002, 1.257390e+005
4.650000e+002, 1.242750e+005
4.660000e+002, 1.243870e+005
4.670000e+002, 1.222940e+005
4.680000e+002, 1.211520e+005
4.690000e+002, 1.204310e+005
4.700000e+002, 1.192910e+005
4.710000e+002, 1.186920e+005
4.720000e+002, 1.178360e+005
4.730000e+002, 1.167020e+005
4.740000e+002, 1.161270e+005
4.750000e+002, 1.148210e+005
4.760000e+002, 1.137210e+005
4.770000e+002, 1.129500e+005
4.780000e+002, 1.124160e+005
4.790000e+002, 1.106960e+005
4.800000e+002, 1.101860e+005
4.810000e+002, 1.097580e+005
4.820000e+002, 1.087330e+005
4.830000e+002, 1.069680e+005
4.840000e+002, 1.066830e+005
4.850000e+002, 1.056830e+005
4.860000e+002, 1.052430e+005
4.870000e+002, 1.044720e+005
4.880000e+002, 1.033090e+005
4.890000e+002, 1.025640e+005
4.900000e+002, 1.023910e+005
4.910000e+002, 1.017050e+005
4.920000e+002, 1.007930e+005
4.930000e+002, 9.998700e+004
4.940000e+002, 9.949400e+004
4.950000e+002, 9.841110e+004
4.960000e+002, 9.755110e+004
4.970000e+002, 9.690610e+004
4.980000e+002, 9.525200e+004
4.990000e+002, 9.557700e+004
5.000000e+002, 9.447500e+004
5.010000e+002, 9.387000e+004
5.020000e+002, 9.295010e+004
5.030000e+002, 9.243100e+004
5.040000e+002, 9.193600e+004
5.050000e+002, 9.125200e+004
5.060000e+002, 9.098210e+004
5.070000e+002, 8.995200e+004
5.080000e+002, 8.952400e+004
5.090000e+002, 8.856010e+004
5.100000e+002, 8.762400e+004
5.110000e+002, 8.733000e+004
5.120000e+002, 8.630810e+004
5.130000e+002, 8.589600e+004
5.140000e+002, 8.466200e+004
5.150000e+002, 8.480900e+004
5.160000e+002, 8.376900e+004
5.170000e+002, 8.363900e+004
5.180000e+002, 8.297510e+004
5.190000e+002, 8.221700e+004
5.200000e+002, 8.139900e+004
5.210000e+002, 8.128400e+004
5.220000e+002, 8.051000e+004
5.230000e+002, 7.870000e+004
5.240000e+002, 7.893000e+004
5.250000e+002, 7.811600e+004
5.260000e+002, 7.799310e+004
5.270000e+002, 7.716400e+004
5.280000e+002, 7.687700e+004
5.290000e+002, 7.673700e+004
5.300000e+002, 7.732400e+004
5.310000e+002, 8.015200e+004
5.320000e+002, 8.370310e+004
5.330000e+002, 8.787000e+004
5.340000e+002, 9.953810e+004
5.350000e+002, 1.054620e+005
5.360000e+002, 1.010340e+005
5.370000e+002, 9.936010e+004
5.380000e+002, 1.031720e+005
5.390000e+002, 1.164880e+005
5.400000e+002, 1.276010e+005
5.410000e+002, 1.320900e+005
5.420000e+002, 1.371810e+005
5.430000e+002, 1.426470e+005
5.440000e+002, 1.335800e+005
5.450000e+002, 1.205680e+005
5.460000e+002, 1.048100e+005
5.470000e+002, 9.774800e+004
5.480000e+002, 9.856710e+004
5.490000e+002, 9.928600e+004
5.500000e+002, 9.660100e+004
5.510000e+002, 9.331200e+004
5.520000e+002, 9.096810e+004
5.530000e+002, 9.048690e+004
5.540000e+002, 8.917700e+004
5.550000e+002, 8.867000e+004
5.560000e+002, 8.804300e+004
5.570000e+002, 8.957700e+004
5.580000e+002, 9.162100e+004
5.590000e+002, 9.299900e+004
5.600000e+002, 9.459300e+004
5.610000e+002, 9.525700e+004
5.620000e+002, 9.805500e+004
5.630000e+002, 1.019780e+005
5.640000e+002, 1.042160e+005
5.650000e+002, 1.043800e+005
5.660000e+002, 1.024810e+005
5.670000e+002, 9.827800e+004
5.680000e+002, 9.528700e+004
5.690000e+002, 9.430800e+004
5.700000e+002, 9.234000e+004
5.710000e+002, 9.074300e+004
5.720000e+002, 8.895410e+004
5.730000e+002, 8.814800e+004
5.740000e+002, 8.805600e+004
5.750000e+002, 8.803200e+004
5.760000e+002, 8.746410e+004
5.770000e+002, 8.755900e+004
5.780000e+002, 8.717410e+004
5.790000e+002, 8.589600e+004
5.800000e+002, 8.533100e+004
5.810000e+002, 8.423500e+004
5.820000e+002, 8.269310e+004
5.830000e+002, 8.135100e+004
5.840000e+002, 8.069900e+004
5.850000e+002, 8.015900e+004
5.860000e+002, 7.955610e+004
5.870000e+002, 7.962900e+004
5.880000e+002, 7.941000e+004
5.890000e+002, 7.903200e+004
5.900000e+002, 7.904200e+004
5.910000e+002, 7.975500e+004
5.920000e+002, 7.948000e+004
5.930000e+002, 7.968400e+004
5.940000e+002, 7.929910e+004
5.950000e+002, 7.933800e+004
5.960000e+002, 7.921900e+004
5.970000e+002, 7.917410e+004
5.980000e+002, 7.917600e+004
5.990000e+002, 7.873400e+004
6.000000e+002, 7.774100e+004
6.010000e+002, 7.819100e+004
6.020000e+002, 7.723910e+004
6.030000e+002, 7.586600e+004
6.040000e+002, 7.529400e+004
6.050000e+002, 7.379700e+004
6.060000e+002, 7.352800e+004
6.070000e+002, 7.243300e+004
6.080000e+002, 7.197800e+004
6.090000e+002, 7.149100e+004
6.100000e+002, 7.123310e+004
6.110000e+002, 7.112800e+004
6.120000e+002, 7.107100e+004
6.130000e+002, 7.008100e+004
6.140000e+002, 7.083200e+004
6.150000e+002, 6.966910e+004
6.160000e+002, 6.977700e+004
6.170000e+002, 6.976800e+004
6.180000e+002, 6.987100e+004
6.190000e+002, 6.907810e+004
6.200000e+002, 6.888200e+004
6.210000e+002, 6.816400e+004
6.220000e+002, 6.861700e+004
6.230000e+002, 6.773500e+004
6.240000e+002, 6.781300e+004
6.250000e+002, 6.770200e+004
6.260000e+002, 6.686800e+004
6.270000e+002, 6.653600e+004
6.280000e+002, 6.586300e+004
6.290000e+002, 6.589400e+004
6.300000e+002, 6.513000e+004
6.310000e+002, 6.448000e+004
6.320000e+002, 6.358600e+004
6.330000e+002, 6.362800e+004
6.340000e+002, 6.275300e+004
6.350000e+002, 6.255100e+004
6.360000e+002, 6.236800e+004
6.370000e+002, 6.143000e+004
6.380000e+002, 6.146200e+004
6.390000e+002, 6.068500e+004
6.400000e+002, 6.023200e+004
6.410000e+002, 6.036800e+004
6.420000e+002, 6.024600e+004
6.430000e+002, 5.989300e+004
6.440000e+002, 5.935500e+004
6.450000e+002, 5.932200e+004
6.460000e+002, 5.933700e+004
6.470000e+002, 5.888100e+004
6.480000e+002, 5.835600e+004
6.490000e+002, 5.759800e+004
6.500000e+002, 5.775400e+004
6.510000e+002, 5.721900e+004
6.520000e+002, 5.683700e+004
6.530000e+002, 5.660100e+004
6.540000e+002, 5.599600e+004
6.550000e+002, 5.567200e+004
6.560000e+002, 5.556200e+004
6.570000e+002, 5.484700e+004
6.580000e+002, 5.499500e+004
6.590000e+002, 5.491000e+004
6.600000e+002, 5.408700e+004
6.610000e+002, 5.437300e+004
6.620000e+002, 5.356600e+004
6.630000e+002, 5.335400e+004
6.640000e+002, 5.316800e+004
6.650000e+002, 5.263100e+004
6.660000e+002, 5.250200e+004
6.670000e+002, 5.231100e+004
6.680000e+002, 5.243200e+004
6.690000e+002, 5.157800e+004
6.700000e+002, 5.177600e+004
6.710000e+002, 5.199900e+004
6.720000e+002, 5.152700e+004
6.730000e+002, 5.171200e+004
6.740000e+002, 5.142900e+004
6.750000e+002, 5.108600e+004
6.760000e+002, 5.103000e+004
6.770000e+002, 5.084500e+004
6.780000e+002, 5.085800e+004
6.790000e+002, 5.062500e+004
6.800000e+002, 5.010100e+004
6.810000e+002, 5.005100e+004
6.820000e+002, 4.951700e+004
6.830000e+002, 4.970200e+004
6.840000e+002, 4.965200e+004
6.850000e+002, 4.907400e+004
6.860000e+002, 4.864800e+004
6.870000e+002, 4.860800e+004
6.880000e+002, 4.789800e+004
6.890000e+002, 4.844900e+004
6.900000e+002, 4.831500e+004
6.910000e+002, 4.794900e+004
6.920000e+002, 4.808700e+004
6.930000e+002, 4.725200e+004
6.940000e+002, 4.715900e+004
6.950000e+002, 4.692100e+004
6.960000e+002, 4.662400e+004
6.970000e+002, 4.684300e+004
6.980000e+002, 4.687700e+004
6.990000e+002, 4.637600e+004
7.000000e+002, 4.598000e+004
7.010000e+002, 4.598900e+004
7.020000e+002, 4.528000e+004
7.030000e+002, 4.490700e+004
7.040000e+002, 4.494800e+004
7.050000e+002, 4.474700e+004
7.060000e+002, 4.479100e+004
7.070000e+002, 4.439100e+004
7.080000e+002, 4.417200e+004
7.090000e+002, 4.399700e+004
7.100000e+002, 4.390300e+004
7.110000e+002, 4.359100e+004
7.120000e+002, 4.334600e+004
7.130000e+002, 4.369700e+004
7.140000e+002, 4.344800e+004
7.150000e+002, 4.295600e+004
7.160000e+002, 4.293600e+004
7.170000e+002, 4.244800e+004
7.180000e+002, 4.222200e+004
7.190000e+002, 4.203400e+004
7.200000e+002, 4.186300e+004
7.210000e+002, 4.172400e+004
7.220000e+002, 4.156500e+004
7.230000e+002, 4.164700e+004
7.240000e+002, 4.132600e+004
7.250000e+002, 4.082600e+004
7.260000e+002, 4.065200e+004
7.270000e+002, 4.103300e+004
7.280000e+002, 4.038200e+004
7.290000e+002, 4.080200e+004
7.300000e+002, 3.976900e+004
7.310000e+002, 4.013900e+004
7.320000e+002, 3.999700e+004
7.330000e+002, 4.013800e+004
7.340000e+002, 3.967600e+004
7.350000e+002, 3.937000e+004
7.360000e+002, 3.930400e+004
7.370000e+002, 3.957600e+004
7.380000e+002, 3.914900e+004
7.390000e+002, 3.880000e+004
7.400000e+002, 3.890500e+004
7.410000e+002, 3.867000e+004
7.420000e+002, 3.873000e+004
7.430000e+002, 3.866300e+004
7.440000e+002, 3.812700e+004
7.450000e+002, 3.820500e+004
7.460000e+002, 3.820000e+004
7.470000e+002, 3.793300e+004
7.480000e+002, 3.773900e+004
7.490000e+002, 3.744500e+004
7.500000e+002, 3.731500e+004
7.510000e+002, 3.771200e+004
7.520000e+002, 3.718700e+004
7.530000e+002, 3.721200e+004
7.540000e+002, 3.702300e+004
7.550000e+002, 3.686200e+004
7.560000e+002, 3.710300e+004
7.570000e+002, 3.674900e+004
7.580000e+002, 3.647700e+004
7.590000e+002, 3.628100e+004
7.600000e+002, 3.621900e+004
7.610000e+002, 3.628000e+004
7.620000e+002, 3.616500e+004
7.630000e+002, 3.621500e+004
7.640000e+002, 3.574800e+004
7.650000e+002, 3.594100e+004
7.660000e+002, 3.546900e+004
7.670000e+002, 3.544800e+004
7.680000e+002, 3.556900e+004
7.690000e+002, 3.551200e+004
7.700000e+002, 3.550800e+004
7.710000e+002, 3.516800e+004
7.720000e+002, 3.517700e+004
7.730000e+002, 3.506200e+004
7.740000e+002, 3.510100e+004
7.750000e+002, 3.480900e+004
7.760000e+002, 3.443000e+004
7.770000e+002, 3.486400e+004
7.780000e+002, 3.435600e+004
7.790000e+002, 3.449700e+004
7.800000e+002, 3.480600e+004
7.810000e+002, 3.576500e+004
7.820000e+002, 3.545800e+004
7.830000e+002, 3.504100e+004
7.840000e+002, 3.421900e+004
7.850000e+002, 3.387800e+004
7.860000e+002, 3.431100e+004
7.870000e+002, 3.385800e+004
7.880000e+002, 3.360400e+004
7.890000e+002, 3.303800e+004
7.900000e+002, 3.317700e+004
7.910000e+002, 3.315600e+004
7.920000e+002, 3.304300e+004
7.930000e+002, 3.328700e+004
7.940000e+002, 3.333000e+004
7.950000e+002, 3.322100e+004
7.960000e+002, 3.310700e+004
7.970000e+002, 3.293600e+004
7.980000e+002, 3.288900e+004
7.990000e+002, 3.279300e+004
8.000000e+002, 3.244600e+004
8.010000e+002, 3.228200e+004
8.020000e+002, 3.222700e+004
8.030000e+002, 3.215900e+004
8.040000e+002, 3.194700e+004
8.050000e+002, 3.171300e+004
8.060000e+002, 3.169000e+004
8.070000e+002, 3.145700e+004
8.080000e+002, 3.190500e+004
8.090000e+002, 3.146400e+004
8.100000e+002, 3.132300e+004
8.110000e+002, 3.133300e+004
8.120000e+002, 3.175700e+004
8.130000e+002, 3.116000e+004
8.140000e+002, 3.145200e+004
8.150000e+002, 3.085600e+004
8.160000e+002, 3.115000e+004
8.170000e+002, 3.114400e+004
8.180000e+002, 3.103000e+004
8.190000e+002, 3.070500e+004
8.200000e+002, 3.108000e+004
8.210000e+002, 3.084800e+004
8.220000e+002, 3.109400e+004
8.230000e+002, 3.075800e+004
8.240000e+002, 3.029100e+004
8.250000e+002, 3.063000e+004
8.260000e+002, 3.044100e+004
8.270000e+002, 3.055400e+004
8.280000e+002, 3.021600e+004
8.290000e+002, 3.019700e+004
8.300000e+002, 3.007000e+004
8.310000e+002, 2.990100e+004
8.320000e+002, 2.980600e+004
8.330000e+002, 2.948400e+004
8.340000e+002, 3.003700e+004
8.350000e+002, 2.940900e+004
8.360000e+002, 2.949700e+004
8.370000e+002, 3.003200e+004
8.380000e+002, 2.945100e+004
8.390000e+002, 2.934500e+004
8.400000e+002, 2.927800e+004
8.410000e+002, 2.931300e+004
8.420000e+002, 2.928800e+004
8.430000e+002, 2.907200e+004
8.440000e+002, 2.834400e+004
8.450000e+002, 2.889700e+004
8.460000e+002, 2.891100e+004
8.470000e+002, 2.889100e+004
8.480000e+002, 2.849700e+004
8.490000e+002, 2.867900e+004
8.500000e+002, 2.887200e+004
8.510000e+002, 2.925100e+004
8.520000e+002, 3.125200e+004
8.530000e+002, 3.833800e+004
8.540000e+002, 6.273800e+004
8.550000e+002, 8.594200e+004
8.560000e+002, 7.328000e+004
8.570000e+002, 6.125400e+004
8.580000e+002, 4.742000e+004
8.590000e+002, 3.895600e+004
8.600000e+002, 3.442900e+004
8.610000e+002, 3.253800e+004
8.620000e+002, 3.159200e+004
8.630000e+002, 3.127600e+004
8.640000e+002, 3.110400e+004
8.650000e+002, 3.117400e+004
8.660000e+002, 3.185800e+004
8.670000e+002, 3.231000e+004
8.680000e+002, 3.399300e+004
8.690000e+002, 3.462300e+004
8.700000e+002, 3.591300e+004
8.710000e+002, 4.050100e+004
8.720000e+002, 4.673200e+004
8.730000e+002, 4.749400e+004
8.740000e+002, 4.902500e+004
8.750000e+002, 4.492700e+004
8.760000e+002, 4.043800e+004
8.770000e+002, 3.880900e+004
8.780000e+002, 3.761300e+004
8.790000e+002, 3.735300e+004
8.800000e+002, 3.793000e+004
8.810000e+002, 3.777000e+004
8.820000e+002, 3.849200e+004
8.830000e+002, 3.828100e+004
8.840000e+002, 3.887900e+004
8.850000e+002, 3.868800e+004
8.860000e+002, 3.978800e+004
8.870000e+002, 4.018500e+004
8.880000e+002, 4.071400e+004
8.890000e+002, 4.096600e+004
8.900000e+002, 4.088200e+004
8.910000e+002, 4.090400e+004
8.920000e+002, 4.087000e+004
8.930000e+002, 4.057300e+004
8.940000e+002, 4.056300e+004
8.950000e+002, 4.031600e+004
8.960000e+002, 4.094500e+004
8.970000e+002, 4.016700e+004
8.980000e+002, 4.066900e+004
8.990000e+002, 4.073600e+004
9.000000e+002, 4.026700e+004
9.010000e+002, 4.099700e+004
9.020000e+002, 4.113100e+004
9.030000e+002, 4.075800e+004
9.040000e+002, 4.106700e+004
9.050000e+002, 4.105900e+004
9.060000e+002, 4.140500e+004
9.070000e+002, 4.086400e+004
9.080000e+002, 4.067700e+004
9.090000e+002, 4.079900e+004
9.100000e+002, 4.008300e+004
9.110000e+002, 3.983900e+004
9.120000e+002, 3.910700e+004
9.130000e+002, 3.890200e+004
9.140000e+002, 3.911100e+004
9.150000e+002, 3.877200e+004
9.160000e+002, 3.870800e+004
9.170000e+002, 3.854300e+004
9.180000e+002, 3.889900e+004
9.190000e+002, 3.902000e+004
9.200000e+002, 3.859200e+004
9.210000e+002, 3.853400e+004
9.220000e+002, 3.858800e+004
9.230000e+002, 3.871400e+004
9.240000e+002, 3.907300e+004
9.250000e+002, 3.854300e+004
9.260000e+002, 3.840300e+004
9.270000e+002, 3.870200e+004
9.280000e+002, 3.866500e+004
9.290000e+002, 3.865300e+004
9.300000e+002, 3.855400e+004
9.310000e+002, 3.853600e+004
9.320000e+002, 3.814800e+004
9.330000e+002, 3.804500e+004
9.340000e+002, 3.810100e+004
9.350000e+002, 3.810000e+004
9.360000e+002, 3.855800e+004
9.370000e+002, 3.833000e+004
9.380000e+002, 3.792400e+004
9.390000e+002, 3.828800e+004
9.400000e+002, 3.802600e+004
9.410000e+002, 3.819400e+004
9.420000e+002, 3.814700e+004
9.430000e+002, 3.781300e+004
9.440000e+002, 3.809800e+004
9.450000e+002, 3.805100e+004
9.460000e+002, 3.770500e+004
9.470000e+002, 3.766100e+004
9.480000e+002, 3.746200e+004
9.490000e+002, 3.725000e+004
9.500000e+002, 3.750500e+004
9.510000e+002, 3.734200e+004
9.520000e+002, 3.684900e+004
9.530000e+002, 3.756600e+004
9.540000e+002, 3.708900e+004
9.550000e+002, 3.688700e+004
9.560000e+002, 3.668200e+004
9.570000e+002, 3.690400e+004
9.580000e+002, 3.613900e+004
9.590000e+002, 3.655300e+004
9.600000e+002, 3.605200e+004
9.610000e+002, 3.611300e+004
9.620000e+002, 3.601500e+004
9.630000e+002, 3.615000e+004
9.640000e+002, 3.630600e+004
9.650000e+002, 3.584000e+004
9.660000e+002, 3.600300e+004
9.670000e+002, 3.560900e+004
9.680000e+002, 3.546900e+004
9.690000e+002, 3.575700e+004
9.700000e+002, 3.549800e+004
9.710000e+002, 3.569200e+004
9.720000e+002, 3.556100e+004
9.730000e+002, 3.545900e+004
9.740000e+002, 3.516100e+004
9.750000e+002, 3.532600e+004
9.760000e+002, 3.526700e+004
9.770000e+002, 3.486800e+004
9.780000e+002, 3.492900e+004
9.790000e+002, 3.522600e+004
9.800000e+002, 3.481500e+004
9.810000e+002, 3.488300e+004
9.820000e+002, 3.471900e+004
9.830000e+002, 3.460200e+004
9.840000e+002, 3.491900e+004
9.850000e+002, 3.505700e+004
9.860000e+002, 3.453500e+004
9.870000e+002, 3.448800e+004
9.880000e+002, 3.424000e+004
9.890000e+002, 3.415500e+004
9.900000e+002, 3.411200e+004
9.910000e+002, 3.396500e+004
9.920000e+002, 3.440200e+004
9.930000e+002, 3.417000e+004
9.940000e+002, 3.407800e+004
9.950000e+002, 3.380000e+004
9.960000e+002, 3.376300e+004
9.970000e+002, 3.353900e+004
9.980000e+002, 3.366200e+004
9.990000e+002, 3.354400e+004
1.000000e+003, 3.372700e+004
1.001000e+003, 3.301000e+004
1.002000e+003, 3.304400e+004
1.003000e+003, 3.319000e+004
1.004000e+003, 3.323200e+004
1.005000e+003, 3.342000e+004
1.006000e+003, 3.301500e+004
1.007000e+003, 3.292600e+004
1.008000e+003, 3.292500e+004
1.009000e+003, 3.297000e+004
1.010000e+003, 3.295200e+004
1.011000e+003, 3.305900e+004
1.012000e+003, 3.294700e+004
1.013000e+003, 3.255600e+004
1.014000e+003, 3.268000e+004
1.015000e+003, 3.270700e+004
1.016000e+003, 3.270200e+004
1.017000e+003, 3.271800e+004
1.018000e+003, 3.259500e+004
1.019000e+003, 3.298100e+004
1.020000e+003, 3.285700e+004
1.021000e+003, 3.269600e+004
1.022000e+003, 3.325400e+004
1.023000e+003, 3.283300e+004
1.024000e+003, 3.278700e+004
1.025000e+003, 3.270500e+004
1.026000e+003, 3.279600e+004
1.027000e+003, 3.260700e+004
1.028000e+003, 3.284400e+004
1.029000e+003, 3.283300e+004
1.030000e+003, 3.304800e+004
1.031000e+003, 3.264300e+004
1.032000e+003, 3.263700e+004
1.033000e+003, 3.252100e+004
1.034000e+003, 3.250400e+004
1.035000e+003, 3.247800e+004
1.036000e+003, 3.224200e+004
1.037000e+003, 3.206400e+004
1.038000e+003, 3.187200e+004
1.039000e+003, 3.155400e+004
1.040000e+003, 3.197000e+004
1.041000e+003, 3.197000e+004
1.042000e+003, 3.196300e+004
1.043000e+003, 3.179400e+004
1.044000e+003, 3.134300e+004
1.045000e+003, 3.157600e+004
1.046000e+003, 3.152000e+004
1.047000e+003, 3.145500e+004
1.048000e+003, 3.140600e+004
1.049000e+003, 3.088700e+004
1.050000e+003, 3.130700e+004
1.051000e+003, 3.090500e+004
1.052000e+003, 3.113900e+004
1.053000e+003, 3.105700e+004
1.054000e+003, 3.079700e+004
1.055000e+003, 3.074500e+004
1.056000e+003, 3.057700e+004
1.057000e+003, 3.040900e+004
1.058000e+003, 3.041800e+004
1.059000e+003, 3.060500e+004
1.060000e+003, 3.030200e+004
1.061000e+003, 3.037400e+004
1.062000e+003, 3.062000e+004
1.063000e+003, 2.968800e+004
1.064000e+003, 3.026400e+004
1.065000e+003, 3.003000e+004
1.066000e+003, 3.023400e+004
1.067000e+003, 2.991800e+004
1.068000e+003, 2.991200e+004
1.069000e+003, 2.993400e+004
1.070000e+003, 3.010800e+004
1.071000e+003, 3.005900e+004
1.072000e+003, 3.015700e+004
